File,Fp1-ave1,Fp1-ave2,Fp1-ave3,Fp1-ave4,Fp2-ave1,Fp2-ave2,Fp2-ave3,Fp2-ave4,F7-ave1,F7-ave2,F7-ave3,F7-ave4,F3-ave1,F3-ave2,F3-ave3,F3-ave4,Fz-ave1,Fz-ave2,Fz-ave3,Fz-ave4,F4-ave1,F4-ave2,F4-ave3,F4-ave4,F8-ave1,F8-ave2,F8-ave3,F8-ave4,FC5-ave1,FC5-ave2,FC5-ave3,FC5-ave4,FC1-ave1,FC1-ave2,FC1-ave3,FC1-ave4,FC2-ave1,FC2-ave2,FC2-ave3,FC2-ave4,FC6-ave1,FC6-ave2,FC6-ave3,FC6-ave4,T7-ave1,T7-ave2,T7-ave3,T7-ave4,C3-ave1,C3-ave2,C3-ave3,C3-ave4,Cz-ave1,Cz-ave2,Cz-ave3,Cz-ave4,C4-ave1,C4-ave2,C4-ave3,C4-ave4,T8-ave1,T8-ave2,T8-ave3,T8-ave4,VEOG-ave1,VEOG-ave2,VEOG-ave3,VEOG-ave4,CP5-ave1,CP5-ave2,CP5-ave3,CP5-ave4,CP1-ave1,CP1-ave2,CP1-ave3,CP1-ave4,CP2-ave1,CP2-ave2,CP2-ave3,CP2-ave4,CP6-ave1,CP6-ave2,CP6-ave3,CP6-ave4,HEOG1-ave1,HEOG1-ave2,HEOG1-ave3,HEOG1-ave4,P7-ave1,P7-ave2,P7-ave3,P7-ave4,P3-ave1,P3-ave2,P3-ave3,P3-ave4,Pz-ave1,Pz-ave2,Pz-ave3,Pz-ave4,P4-ave1,P4-ave2,P4-ave3,P4-ave4,P8-ave1,P8-ave2,P8-ave3,P8-ave4,HEOG2-ave1,HEOG2-ave2,HEOG2-ave3,HEOG2-ave4,O1-ave1,O1-ave2,O1-ave3,O1-ave4,Oz-ave1,Oz-ave2,Oz-ave3,Oz-ave4,O2-ave1,O2-ave2,O2-ave3,O2-ave4,AF7-ave1,AF7-ave2,AF7-ave3,AF7-ave4,AF3-ave1,AF3-ave2,AF3-ave3,AF3-ave4,AF4-ave1,AF4-ave2,AF4-ave3,AF4-ave4,AF8-ave1,AF8-ave2,AF8-ave3,AF8-ave4,F5-ave1,F5-ave2,F5-ave3,F5-ave4,F1-ave1,F1-ave2,F1-ave3,F1-ave4,F2-ave1,F2-ave2,F2-ave3,F2-ave4,F6-ave1,F6-ave2,F6-ave3,F6-ave4,FT9-ave1,FT9-ave2,FT9-ave3,FT9-ave4,FT7-ave1,FT7-ave2,FT7-ave3,FT7-ave4,FC3-ave1,FC3-ave2,FC3-ave3,FC3-ave4,FC4-ave1,FC4-ave2,FC4-ave3,FC4-ave4,FT8-ave1,FT8-ave2,FT8-ave3,FT8-ave4,FT10-ave1,FT10-ave2,FT10-ave3,FT10-ave4,C5-ave1,C5-ave2,C5-ave3,C5-ave4,C1-ave1,C1-ave2,C1-ave3,C1-ave4,C2-ave1,C2-ave2,C2-ave3,C2-ave4,C6-ave1,C6-ave2,C6-ave3,C6-ave4,TP7-ave1,TP7-ave2,TP7-ave3,TP7-ave4,CP3-ave1,CP3-ave2,CP3-ave3,CP3-ave4,CPz-ave1,CPz-ave2,CPz-ave3,CPz-ave4,CP4-ave1,CP4-ave2,CP4-ave3,CP4-ave4,TP8-ave1,TP8-ave2,TP8-ave3,TP8-ave4,P5-ave1,P5-ave2,P5-ave3,P5-ave4,P1-ave1,P1-ave2,P1-ave3,P1-ave4,P2-ave1,P2-ave2,P2-ave3,P2-ave4,P6-ave1,P6-ave2,P6-ave3,P6-ave4,PO7-ave1,PO7-ave2,PO7-ave3,PO7-ave4,PO3-ave1,PO3-ave2,PO3-ave3,PO3-ave4,POz-ave1,POz-ave2,POz-ave3,POz-ave4,PO4-ave1,PO4-ave2,PO4-ave3,PO4-ave4,PO8-ave1,PO8-ave2,PO8-ave3,PO8-ave4
,,,,,,,,,,,,,,,,,,,,,,,,,,,,,,,,,,,,,,,,,,,,,,,,,,,,,,,,,,,,,,,,,,,,,,,,,,,,,,,,,,,,,,,,,,,,,,,,,,,,,,,,,,,,,,,,,,,,,,,,,,,,,,,,,,,,,,,,,,,,,,,,,,,,,,,,,,,,,,,,,,,,,,,,,,,,,,,,,,,,,,,,,,,,,,,,,,,,,,,,,,,,,,,,,,,,,,,,,,,,,,,,,,,,,,,,,,,,,,,,,,,,,,,,,,,,
p01,-475.8533,1395.006657,-2109.469986,-359.395218,-3726.823044,756.03714,-2961.800194,-3415.901566,-330.315852,1030.343342,-653.763914,-703.571987,-124.290192,-163.15794,-176.356518,544.926453,1329.237843,-60.47703,111.06658,1174.479008,558.181858,372.5703,682.389736,-353.97265,1085.877705,702.843571,7.771461,1394.989872,2205.618668,-2455.745506,-182.782781,1071.299648,3083.7677,-1490.381527,256.497526,1311.294365,1422.617054,908.495522,1393.761063,1383.114433,-21814.55383,29467.7948,-84611.09009,-11092.19589,832.851791,-261.744165,796.451235,1015.703201,2692.140579,-144.714761,-574.513245,1686.27491,2206.07872,1011.333561,1983.475876,2215.070724,1701.708984,1864.481354,2262.406731,1882.699013,580.606127,190.01689,232.690692,-95.761716,-2046.967888,-1712.198067,2515.490723,314.972019,793.768787,1083.496952,2096.466064,2515.604591,2903.915024,1948.707962,3232.209778,2109.725952,2495.850945,954.982185,3220.927048,2828.228378,1778.499985,967.221355,1955.119514,1785.459518,-1388.327217,4.642231,-1668.385124,-1714.435959,1339.467335,-33.003411,1261.46431,801.72205,2094.523239,1331.141186,2388.549042,2125.367928,2254.493523,2231.991577,2481.965065,1747.659302,1607.270622,1092.647839,2021.371078,1086.734009,261.341739,-309.457278,794.66362,-967.122841,-193.676412,-316.738582,346.163607,185.948133,838.733196,108.654583,1543.583488,694.911051,2049.354362,-496.417761,1799.108887,234.18932,816.414261,1330.29232,2194.513702,1283.127689,637.120104,64.120346,-675.818443,-229.974318,-275.761104,-209.654856,-659.030056,44.086504,1076.669121,1026.104546,188.919866,399.723768,-1431.941605,438.866615,-2514.51683,-2646.014023,-885.34174,-93.198347,-1627.68383,-676.102591,254.130626,73.973233,300.574517,352.286482,1326.814938,1303.275394,1136.07626,1659.427071,993.431187,804.15411,73.367786,1384.800339,-376.985407,-883.915806,116.140997,-809.012318,1409.706974,-1747.654343,-228.040481,608.850765,611.558771,150.118756,385.674834,1128.640747,1478.708744,1678.194809,2009.829903,228.655553,686.262321,811.861706,-2165.956306,150.217032,102.983201,-605.392694,-16.690448,-192.904794,532.832432,-35.370201,652.812433,1539.58931,2854.568863,-1121.562958,792.308712,2176.646423,2404.728127,979.075718,1750.393295,978.874207,879.621506,26.851311,597.268343,584.083414,1342.689037,-28.218335,1292.859077,846.471691,3341.292572,552.697802,2188.677406,3608.28743,2350.236511,1797.537231,2351.879501,2543.914413,2538.567162,1428.511524,3431.987381,2290.210915,722.992468,398.024344,1188.768196,70.800239,1354.95615,-4.840042,1253.862762,829.8666,3021.448135,2078.069687,2537.763786,1908.670616,1877.523422,1918.937111,1432.206059,1876.112556,1602.759171,1116.109943,2010.293007,1116.893291,1495.068169,-65.97622,1570.230961,-585.796452,1754.790688,1018.353844,1763.053513,1201.782703,1552.349377,1618.33477,1901.622772,1180.312252,942.184448,605.910015,2435.480881,1333.957291,1420.739746,668.921757,1946.021271,691.211462
p02,3870.171356,5689.81514,2459.918404,-3133.983612,4084.794235,5604.571152,2489.054108,-3703.4832,-596.732855,-52.522796,1380.658054,2833.701897,685.307741,1093.370438,1695.727348,2121.068764,420.980501,1258.171272,2931.265068,2046.841431,1190.918446,1470.76025,2513.350296,2147.894478,204.304385,-194.330728,-20.368296,1094.466305,-1943.364334,-120.690119,633.420324,1779.228401,187.966502,610.395288,1379.843807,2310.701561,618.762255,1084.54113,1583.314514,2318.749237,344.536376,89.608353,718.779945,1345.643616,-525.347233,-1703.512383,-90.644836,2403.736305,-103.369212,-195.364213,846.570301,2014.798737,254.425836,354.927921,948.669243,2278.278732,782.036495,-13.189094,473.661613,1821.337509,687.043571,-1934.36451,-849.129391,919.532394,-1790.591431,-7911.065674,-11172.53571,-1063.228512,-940.113449,-1750.458527,-123.534143,2273.7257,-375.487566,-286.05113,104.916453,1952.968597,283.792281,-455.669498,375.248241,-248.471975,-7.345555,-993.922329,249.088383,841.671085,1729.492188,-55.514932,-1660.657501,-4467.815781,-951.96228,-1142.683792,275.648046,2260.72998,-944.197464,-1136.261463,291.024494,2249.695778,-363.610649,-657.138777,262.033868,2058.951378,759.186029,-1234.367561,-402.085257,941.944885,763.422966,-1244.037342,-392.482424,945.787907,-2030.47657,-709.192991,110.213006,2084.715843,-1263.897705,-2557.164764,-1884.662628,1986.392021,-306.935358,-2801.807594,-1895.518112,486.754227,286.165428,-1831.274796,-1250.729847,202.372456,-77.586907,2065.473175,3039.779472,2504.719162,472.845888,2520.935822,2468.053246,2444.41433,1118.006039,2452.751923,3891.473389,1229.376221,1056.054688,3731.928635,1803.938484,-634.520245,-665.325785,924.837399,1153.528309,2353.444099,-14.817077,1528.046131,2504.396248,2589.966774,1198.676205,1447.527313,2550.239944,2138.956451,203.395486,-189.25209,-21.827187,1091.299152,-664.630985,-1004.994965,-23.613548,3068.370628,-655.432892,-1020.211792,-25.303134,3038.157845,1346.979809,4467.685318,1090.294552,2597.914696,333.389997,139.037943,774.425936,1357.115364,333.565688,72.877622,721.347523,1339.94751,578.393173,-930.780888,-127.660882,-617.539835,-1127.149391,-1133.477879,-101.832724,1858.706474,-80.920464,-181.842983,852.826023,1998.274994,226.998901,221.580172,1120.246315,2281.739235,775.306559,-261.608076,86.962682,1518.118954,-802.299881,-1809.249687,-275.990009,2143.862724,-350.291872,-774.472189,236.158967,2606.486702,-92.122251,-225.985599,620.32876,2046.611214,526.770687,-73.602945,600.690889,1662.285805,597.981024,-1431.18763,-871.499634,1129.349232,-957.471657,-1141.097832,287.426424,2257.850075,-952.321815,-1143.485737,301.954222,2229.880524,211.175632,-474.171925,794.994259,1919.829178,771.534729,-1228.449059,-387.470269,929.831219,-1393.406105,-2771.064949,-1330.958366,2435.027504,-717.750883,-2170.061684,-294.515109,1705.720139,-347.781968,-2148.726273,-381.15499,890.997028,284.711909,-1843.829346,-1243.732548,196.370816,205.662537,-2880.919456,-1548.262882,293.014741
p03,-3569.651413,-2206.669426,-503.961277,-362.06677,-1797.859764,-2122.761726,921.448326,614.777517,-2773.76976,-1504.245472,-1040.137768,-864.011955,-2182.315445,-1064.411068,-626.023102,-674.567509,1161.864471,-631.61211,-683.053827,4.819737,-491.509628,818.808651,-640.323973,286.861515,-832.37772,966.811275,-188.428676,-1125.365829,-2269.931793,-916.642284,-825.153923,-834.590244,-1068.121719,-394.782305,44.300666,-170.293677,-169.75044,338.109589,-344.424653,-301.699376,-218.55073,1768.520927,1794.251251,-1076.751804,-1238.383198,-472.216463,1311.025715,-845.188332,-103.959739,617.935085,42.691919,57.817441,574.273443,192.975211,-148.396266,116.883898,-189.499354,736.418629,187.587059,-719.259691,-922.550392,-709.358454,-804.909325,-2368.605995,4449.820328,4041.213226,-1561.593246,-2274.396706,824.511433,1640.715218,520.850134,318.102837,2135.704041,1679.026413,383.023334,544.887686,862.97493,1508.275318,347.535706,-345.809531,406.668711,-920.913792,-236.409521,-39.937559,2073.059082,1791.790962,342.371035,40.804017,-103.228426,729.397678,8.735855,-791.421556,1452.26202,2014.259338,966.361046,518.954325,1824.629974,2010.35881,1470.094299,-6.512392,1108.522606,1229.477024,-34.783903,40.882152,999.071884,224.580121,-1131.419659,-1866.20388,-2094.178581,-1583.291245,-428.467274,-408.185625,921.598911,1189.225769,-659.19714,-1347.963333,2494.072151,1730.579948,-2609.374428,-1984.121704,-718.081236,-144.07748,-902.1451,-2203.170395,-3969.039917,-1991.853523,-858.947372,37.680793,-2429.671669,-855.734444,-227.94292,-38.337651,-1860.136604,-457.263803,-771.407509,-781.660271,-1160.96468,-1675.949097,-755.208492,476.480436,-2202.703476,-1062.915611,-641.649055,-702.185106,-1511.841774,-145.507705,-422.171545,462.618208,1157.715416,-626.000166,-691.071272,2.864402,-854.668903,-244.297528,1254.415512,-606.103992,-1227.616215,-2754.459,-377.896953,-283.705807,-2580.822182,-1134.654427,-1183.71172,-1029.591656,-1566.678905,-180.441022,-272.399855,-428.135872,-263.988042,393.132854,-652.206993,165.383255,-950.457287,-67.089772,-1621.356964,-1604.922485,459.961414,972.739124,-89.851093,-1060.566521,-1320.565891,-217.455745,-351.479769,-796.421146,136.82766,430.015612,276.069427,270.306921,7.109129,721.268988,430.242348,-275.59607,-761.847019,1164.047813,-712.132788,-1166.78772,255.45733,1075.261593,198.304451,-2255.670547,471.683741,1596.188831,1156.825733,462.560272,1323.16761,907.784557,912.734222,257.478547,2080.194473,1579.876041,1027.480602,422.702837,-637.464476,623.317623,-1468.32943,-2225.439072,1088.63039,843.710327,740.643597,139.409173,2117.857552,1977.10743,821.48304,103.969121,2607.312393,1871.723557,791.665649,205.873513,590.65156,535.558987,-633.441067,-773.474026,273.803926,33.281127,-1073.559952,-1330.356789,1948.313904,1140.66782,292.588139,-176.902437,3178.707504,3613.866425,1646.639061,-108.398664,912.375832,1309.797859,-894.951439,-576.601124,13.325074,-434.485292,-1567.621899,-2101.378441
p04,133.718991,1225.707245,-9.414359,2311.767578,-760.025787,2419.082642,1648.957443,3068.943977,287.138295,-203.253317,-1219.109726,610.801315,-1251.867771,-829.184818,-318.715286,1150.203705,119.333649,-94.20169,652.209806,1758.782578,118.105149,781.253386,1991.330719,2102.861023,-647.135592,683.99148,57.718378,-157.882106,-4214.612198,83.934551,3982.498932,423.127985,-829.159355,-134.549558,894.230175,982.680798,-163.083649,417.366171,1387.308407,1787.480927,229.369354,507.090902,1311.475563,2107.809448,1079.797554,209.088469,1483.500004,1613.65757,-1321.412468,133.806336,798.467207,1429.553699,-883.409214,-41.079211,694.096804,777.159119,-528.350925,578.604794,1159.729385,1321.943569,507.00407,1625.343513,946.106339,3054.477501,5128.678131,2651.586914,3264.282227,1311.322021,-198.022807,675.563478,1627.979851,1548.130989,-586.830759,1018.89782,1170.805645,1973.871613,239.734364,1263.984966,1411.716747,1581.246662,261.650014,1876.71566,1502.924919,2816.168404,774.287081,54.436076,-457.714367,-1255.859756,593.817663,2166.839218,2252.042389,1785.608673,-93.762887,1784.355927,1167.420959,1443.115902,248.850346,1421.183968,891.410065,1418.019485,1024.046135,2465.426445,1215.653038,2369.191933,-185.508847,1273.869514,945.052814,1581.751156,438.137197,504.293251,29.333949,345.525384,-908.267403,1887.460709,3515.855026,1780.772209,1540.123177,1679.008293,2250.264549,2379.86393,1492.908764,1974.320412,1087.671089,1408.232975,-2135.524559,-284.786677,760.312319,2015.068436,-2151.464272,1057.24802,722.465277,2635.269165,-2784.588814,-2412.396622,77.775735,811.213303,-1035.484219,1116.187763,1002.672482,332.786226,-1164.896297,-292.55209,918.807983,1942.781639,-1773.055458,-1352.656555,181.213927,1045.358276,-856.412125,-339.407134,1516.647148,1624.46022,-75.160122,612.812805,861.768246,1721.131897,-1012.792683,-1625.004768,194.409513,-236.622667,-187.369108,819.145966,2625.868034,1530.576611,-1210.43148,74.085736,769.809532,1142.284775,-699.099541,60.795426,2081.618118,1633.867836,2729.636574,626.81241,3494.898987,3683.931351,24116.99219,-1100.822735,32204.41895,14840.04211,-1371.711731,-315.262961,1369.62204,1361.891651,-827.333546,196.546996,927.302933,1169.960499,-510.869265,429.125977,1482.675648,1625.910759,519.754505,562.102842,2232.71656,456.491327,-1492.64679,376.86224,1118.081856,250.241089,89.202285,752.836227,1224.933052,1631.328011,-557.17721,1290.903187,716.797161,1454.377556,491.206026,1291.852283,1610.496521,2065.689087,-1193.7644,2525.774574,1361.188126,580.864716,58.300203,1935.840225,-194.130301,3261.598969,1179.468727,3474.692154,4017.178726,2693.958855,508.591461,1086.037254,1055.472279,1018.459702,1001.711845,3067.329979,1869.85836,3641.418457,1551.731873,1306.840801,384.454799,1628.35865,124.131846,2819.055176,54.386193,1906.126595,220.86823,1561.447811,998.075199,2066.304207,13.85408,1843.535805,162.134874,1940.561676,365.804887,2097.066689,1387.446499,3812.733459
p05,-4727.542877,771.255541,-5282.876205,-1144.512272,-13506.60858,1124.565125,-21224.06006,-485.887289,1181.999874,733.811188,473.091459,-223.098826,971.413231,208.893299,5.810316,1424.54195,1815.659142,2338.345146,1734.540749,2234.66568,1614.351082,2125.423813,-331.583238,359.643817,-243.991995,-2268.597412,-1808.364677,-919.276047,610.725498,553.736401,-1165.606689,1754.711723,1452.539921,1675.685883,1684.451485,1730.286407,2222.179604,2110.032845,2639.04686,927.653885,1773.455238,1545.513058,477.391052,925.81501,422.909307,-432.751513,-708.236599,179.634285,1894.907379,1030.573845,3221.627426,2199.206924,3161.920738,2814.255142,3884.055328,1885.087776,2860.817337,2185.552025,2116.053009,641.927576,3511.472321,379.329491,-916.051292,-233.993506,-4966.87088,-1719.966125,-671.63372,1723.944664,1481.533051,142.305827,207.732153,753.567505,1965.589142,1983.085823,1915.728188,1489.5504,2847.588539,2173.61145,1950.542259,699.807167,2707.491875,887.643814,305.518508,239.818048,-941.959476,-378.483367,-698.669672,-51.764017,800.500488,914.874649,99.284011,551.955366,1866.352463,471.531296,235.64682,1008.69751,2251.175499,2818.307304,1909.996605,1394.429874,2980.329323,1119.993877,214.378548,543.879795,1352.916813,562.985897,-92.592949,-439.08329,-1658.370209,-2049.271774,-735.527802,-845.153332,2020.108604,250.654531,229.032731,387.175536,1350.671577,279.902577,-727.116919,-97.138518,1580.994797,-263.418269,1081.453228,206.931257,-3324.041748,-2392.789459,-7471.426392,-1496.386242,-960.345459,-884.417439,-1751.410866,-53.256297,1274.150276,587.359524,-491.750908,639.849186,-8613.517761,-22.241014,-13925.93231,-3493.153,13.240039,111.255932,-814.198685,545.329952,1752.248383,1324.929142,826.222134,1455.916882,1820.48893,3061.923027,1954.405022,1965.237999,2029.085732,592.540598,-622.613001,1014.087105,-1083.723259,-3326.8116,-1792.761421,-633.566952,39.817199,-1107.123375,-936.551952,450.839758,1448.824883,801.028728,-71.521461,1125.102901,2128.10421,2692.907333,1162.288761,343.254566,-240.486169,94.091499,-1238.118362,1310.549068,-313.88011,-554.775095,-1136.724472,-289.006257,759.038448,568.951273,-493.556261,1419.601536,2562.952423,1763.936043,1042.592239,1641.557884,2720.989418,2312.934494,1183.501816,1215.189457,1346.378708,1002.741432,105.887818,566.551304,-474.475861,739.956474,-1220.101643,131.746674,2304.449654,1675.177383,1221.398735,1463.069153,2877.435493,2220.201111,2060.685349,793.36338,3306.838608,2141.814423,2003.654671,680.502844,430.034685,703.472137,-593.968821,-445.504427,1942.75589,347.689986,93.665946,547.65048,2315.665054,1048.876762,1452.035713,1407.192612,2651.593399,1085.959911,859.929752,288.377643,2289.928627,651.536036,13.555695,139.414978,1987.707138,385.507464,-875.523281,24.529766,2044.298553,230.602479,188.316453,376.347637,2512.569046,546.150064,302.109361,308.009887,2284.092903,-76.282674,432.215214,834.133434,917.242146,-428.845167,-663.241386,2175.289917
p06,-422.668457,-3367.648697,1174.401569,-241.57517,-1286.779976,-3740.932465,4807.28035,-5007.986832,-1960.321808,-2458.382797,-642.049313,92.79058,-184.680462,-217.160201,517.451715,2280.69725,1314.896297,408.036566,1547.884464,226.569939,1592.823601,574.870968,3950.618362,1111.717224,1217.726898,-1128.156567,812.891006,1011.406803,-1304.822254,-2670.848656,65.360075,1188.752556,180.24205,-252.587891,1589.932537,244.641662,1537.501431,954.443741,1964.58416,521.542263,1622.026253,367.066669,2105.257797,2734.82933,-1337.913132,-2502.458763,-695.511866,488.886166,-351.695132,-1274.904537,1213.015556,-454.949951,1711.743164,576.36075,2308.044624,-239.812946,1620.236969,249.867725,2312.436676,702.709627,1551.783085,1232.030869,1747.588158,1997.67437,-2131.715775,5084.934616,-2047.584534,1058.297825,-821.094799,-2549.903488,485.164309,136.693048,983.932877,-399.977684,1428.31049,39.083198,1884.474373,786.48119,2796.162796,893.207455,1348.31543,271.169853,2661.968422,1082.458591,2500.057602,2243.708229,-362.564564,1350.835705,-40.986866,-1934.431648,807.355976,-106.320739,1728.561592,65.085256,2137.896156,-632.188654,1727.741623,78.371918,2167.227173,-615.817356,1665.102577,495.469761,3484.269714,977.701378,2050.666046,357.668805,2694.185257,994.644737,-3974.82872,-3133.591461,-1164.835548,-1259.560394,389.261508,-1735.901451,1328.073597,-750.739241,933.849335,-1237.994003,1759.451103,-44.829863,1188.34486,-294.209433,2225.66967,885.324287,-368.804717,-2929.335785,681.725979,1642.415619,1123.542309,-417.030239,843.334866,3316.912079,1549.835396,1459.59034,4103.660202,490.309477,3561.869812,-734.914589,2096.42601,457.128334,-379.691458,-558.699226,155.382383,2770.376968,1421.494389,483.14271,1309.917068,855.416393,1346.947861,296.794987,2160.534859,1171.353245,1402.15416,757.132244,515.474606,2760.961342,-921.951199,-2069.352531,-847.637177,1678.521538,-1359.361649,-2834.844017,180.925822,2295.137215,269.414186,-1106.665421,779.23522,434.099245,1974.798965,925.056553,2594.247437,1028.667927,2829.075432,3359.41391,3780.379868,-46.805823,1664.780426,701.580477,1984.177971,2582.030296,-88.658613,-2954.110527,1.292427,724.40753,633.847094,-750.990868,1270.698357,-269.73567,1620.497131,846.520615,2314.971924,491.774797,1545.240974,207.261419,2276.571465,1173.551273,-1445.676804,-2832.848549,-857.105637,171.218359,33.177066,-1417.903519,1177.276134,-131.215179,941.75806,-311.540461,2022.327042,603.674555,1922.987556,45.332557,2457.029915,934.999752,1832.185745,-455.565929,1666.604424,2240.683746,-25.423324,-1896.193504,824.413967,-90.783936,1732.320976,66.271156,2141.597557,-647.424746,1906.715012,671.360779,2572.608757,1294.264221,1929.819679,432.771778,2769.784927,824.093151,432.66449,-2070.344353,1225.68922,274.696517,529.494619,-1330.703545,1746.409798,516.219521,1683.740616,-988.41486,2396.630096,957.234097,1178.523159,-307.044601,2221.911049,889.522839,687.829494,-37.061629,2520.017433,629.094124
p07,2579.304123,1640.294838,2290.087318,1200.449944,834.026814,-404.247522,954.936409,954.214478,1481.785774,1269.708443,1170.415115,1176.14069,1001.508141,1199.660397,922.563934,1195.533562,2115.326309,1293.008423,932.879639,1010.105038,2115.866089,1535.049915,1302.834702,3.775965,2232.772255,947.816277,1359.885216,1629.003716,763.241482,659.261513,491.876316,-16.586871,2864.472389,1963.750648,1875.858116,1782.833862,1464.7542,1014.661789,1935.957336,25.521296,2183.87413,1871.722794,2434.247971,1579.131317,2010.432625,1639.724731,1076.092911,1332.748032,2351.35746,2979.388618,1992.687607,1660.558891,2991.744614,2266.95118,2065.956306,1254.617119,2438.825417,1432.662487,1873.133659,1071.161842,1994.573212,1267.427826,1326.158905,1045.624733,1200.766563,974.353409,1337.81004,1042.564297,2589.940453,2539.344597,2634.8423,1840.193176,3172.083473,2740.389252,2632.849121,1985.61821,2375.463486,1795.831871,1260.189152,621.444702,2142.938423,1047.25666,1334.491825,632.590342,-4398.973846,-3420.614624,-3452.200317,-2062.159157,2371.686554,1949.044228,1773.417854,1380.141068,2246.712685,2631.391335,2208.406258,1264.273071,3659.557343,3055.582428,2850.195694,1867.152214,2308.071518,1544.712639,686.61375,679.49357,1479.733849,1267.144108,1154.190063,38.129827,1384.928513,1046.00544,1402.112865,713.856411,1792.038345,1391.678047,1446.205997,906.120872,1106.827831,1085.214329,1316.461563,-69.697213,1147.473621,933.941364,905.081558,34.847519,1383.277035,1176.984596,1498.925114,1383.537579,2013.935089,2002.238083,1626.896286,-125.595045,2431.754875,1297.254944,1683.753395,1956.29921,395.257998,-621.131945,949.992657,237.375236,1024.775124,1203.260231,934.153557,1169.59877,3018.082237,2555.838966,2517.27562,3338.946915,1632.82814,1423.910999,3002.977753,-2437.1912,3173.685646,1048.522663,1033.41608,1239.523792,52.684295,330.520225,607.291603,345.740223,383.549714,771.317244,982.759762,69.260502,1648.77224,2261.810684,1829.479218,1859.693146,-775.44589,2970.635033,1363.643646,-1147.896481,535.567331,522.934818,852.676773,15.297587,112.692142,154.686403,55.759442,117.724228,2023.437309,1705.982208,1342.314434,874.108696,4684.951019,3321.11702,3526.507568,2767.872238,2747.589874,2773.978043,2463.29174,1343.809414,1204.561996,449.666357,603.338671,-96.256733,1153.84779,1724.856567,559.427977,1791.834068,2696.855164,3625.660706,3073.328972,2370.222092,3494.953537,2048.40889,1954.042244,1040.491104,1962.190247,1489.306259,1845.84713,499.864101,1170.041466,1078.122616,1034.904385,-265.632725,2235.265732,2335.722542,1930.699921,1538.013649,3209.466171,2648.739433,2591.358376,1293.629932,3413.07106,2224.811172,3135.124969,2453.260231,1096.461201,1253.604221,1352.079773,474.455357,562.267923,381.398582,1855.293846,1319.596767,1790.623474,1387.311745,1459.870243,915.975857,2391.362953,2124.116707,3319.121933,924.893856,3789.048767,2101.294708,1920.25032,1230.381489,961.279774,996.271515,1702.116966,-633.103848
p08,-999.940491,-3993.714142,-1101.175976,1455.137062,-2413.45787,-3255.240631,-3624.848938,440.256071,21.255733,-1580.589294,-2057.019806,-219.453359,375.540423,-604.635382,-661.441708,540.43622,-910.345459,758.324766,586.227179,575.763273,-671.869326,-238.872409,-246.97845,-322.704911,-1556.006336,-2366.141701,-2462.768555,-1370.150471,-241.29653,-783.688116,-873.950005,-369.041777,0.26118,128.87336,466.596222,-119.927621,-80.690199,304.473877,30.494356,262.867427,-1189.747047,-1403.297901,-1722.09549,-166.976988,-201.467443,-1808.41198,-1782.224083,131.827652,-473.628235,-160.202408,-128.116798,-335.403156,-109.983718,-734.333563,-187.608469,1509.935856,1079.590321,1073.198509,893.761253,175.505197,-941.553974,-1428.715038,-1029.3437,-278.436399,1992.876816,3497.956085,738.433981,441.857481,219.280171,-255.31497,489.41083,591.949272,299.063659,438.921309,238.748932,570.292711,592.990828,641.893578,140.731657,474.222326,210.939884,700.146103,820.256901,-324.946189,-124.786484,1026.869011,97.345394,259.290147,-38.870552,1255.473232,-90.292901,-340.336323,775.850153,1182.413769,596.362352,385.760498,1014.31694,602.095747,266.827655,948.151588,1288.798714,1732.723618,520.857239,829.193783,1557.113171,2589.334106,1235.305309,815.848351,187.25456,-805.790615,-513.126135,-974.01123,-201.528907,1062.259865,321.903777,764.138174,1941.244507,1908.071518,235.867357,298.616886,1420.096397,451.42436,-858.658504,687.595272,-1517.579079,-8175.927734,-4466.028595,734.716892,-5.030183,119.611275,-1080.316353,-23.074859,-945.955467,-490.600109,-225.711846,884.557533,-1791.923141,-1483.035755,-1986.620331,-642.439318,-702.067041,-708.476925,-795.103216,-23.500374,-4.501776,-135.831356,1166.067696,975.033092,-340.969205,-792.73963,492.284966,924.54567,-912.759399,-487.390184,103.155673,-264.904475,-1718.749809,168.279028,-2070.694542,-1508.74815,-255.324578,-1769.893456,-1942.695236,-618.034267,371.928763,139.91195,-178.281069,-203.647995,-169.735444,97.451276,1005.03664,-545.802832,-1192.433071,-1450.693703,-787.301064,-1118.189526,-821.873283,-87.628651,-1739.182281,-363.234711,256.772661,-1047.612381,-642.820835,36.20021,-730.768919,-316.238451,6.103064,306.881857,293.081284,220.92278,286.763477,810.822105,-227.84884,114.317727,300.134611,920.727062,-801.669979,-1334.161854,-1359.451103,-291.939259,1566.50629,856.205845,319.37511,1039.396572,510.64539,104.680228,753.066587,816.537189,1255.992603,757.73325,1457.460499,842.32893,55.893743,955.297375,-178.95565,580.08585,408.66847,1135.360432,-338.617587,363.553667,1169.963551,871.88549,1.892179,753.437233,96.585882,2298.828888,-21.691011,894.579411,1554.979801,992.084789,530.351973,348.367953,921.416378,1455.371952,550.642729,314.035416,1402.3983,1336.000824,246.494341,1260.027599,1459.096622,1488.726902,703.693295,928.666592,661.519957,1260.685062,355.288029,982.138538,1839.115524,1641.469002,545.763683,-1478.25098
p09,-536.362314,2185.93502,-42.58281,-2357.753944,1214.064884,810.177422,719.091463,-456.783628,708.628035,-1297.779465,587.990141,-2015.772438,958.233356,125.018466,316.791415,-634.025431,-73.573315,-372.352743,-62.870169,-149.926591,584.789515,115.603268,-125.523508,-323.163891,1092.10701,134.019482,253.230596,-1545.767879,2730.549049,985.264111,1728.869629,-809.034634,-367.30535,-1039.463234,-736.38587,-79.325354,3006.337357,2231.197166,902.479458,292.779922,-1090.278625,735.217571,-536.5376,-610.962439,938.374233,-171.56328,814.49995,-177.033889,705.982351,316.950798,623.611116,331.457686,830.218506,551.338673,496.126556,-511.380386,616.991758,743.334293,668.826866,207.07593,450.989246,853.726101,1516.84103,-359.289122,1276.651955,1075.337219,123.600316,213.079906,668.673515,-318.222713,759.424162,-1662.410545,1664.410973,332.582211,866.625786,-84.82489,2062.994385,766.56723,617.653179,189.612448,2200.730705,2476.053429,1292.443466,568.903351,396.897292,-206.267476,45.475283,-681.5907,1458.209229,1426.968765,2015.097237,67.363858,1900.250626,1169.258785,1943.266678,815.353107,1068.73045,1566.283703,1796.855927,44.583935,1683.47702,1595.273685,1264.821243,993.94455,968.666935,153.144884,1748.498344,11.338123,-13.545527,728.773737,337.180018,1242.716026,648.746061,-121.302629,1236.797333,-159.829938,2654.581261,882.380009,573.690796,-387.576747,2197.502708,77.460086,443.817425,-1332.716846,-141.107571,303.391385,-822.984695,-615.786171,-1223.83213,-333.512449,-782.05328,-32.372037,1022.281075,251.219511,471.021891,59.05934,-1096.216393,1529.34494,-1626.488686,170.270717,384.122682,-141.864824,-439.567518,-482.833958,-319.528532,-1067.871571,-838.315868,-191.661751,1240.138245,-236.968946,18.111141,182.180703,2502.448463,1387.740803,1922.456932,-39.977351,-4.625171,1006.448555,-245.456147,-639.381695,774.163008,1805.975533,192.494655,-964.917946,996.789932,133.266628,293.356895,-591.028166,200.306439,1127.672195,110.009658,-448.846388,-1607.245636,2371.200371,-1053.018379,-1618.416786,603.334665,-522.114229,563.770008,441.611385,957.500362,-162.459564,829.805851,-202.16527,1351.929283,352.134299,740.92741,-40.828079,2535.987663,761.333609,981.006718,170.850182,1526.167107,2006.761169,1244.769669,954.648018,284.581757,-311.421442,111.938751,-548.319244,1724.57962,264.695024,1143.867397,-21.753906,2440.021706,-605.701828,-132.728839,-40.690899,1333.630466,1753.274727,1624.66507,585.55212,-877.390289,1169.73753,237.001085,-1560.571861,1900.124741,1163.37328,1946.833038,818.166828,1667.306519,353.396487,876.041031,-95.691872,1709.042168,1606.804848,1264.608097,999.93372,1705.956078,1615.529633,1240.023804,986.158276,1620.402336,581.985807,1414.590073,823.477077,1159.369278,1816.613579,1782.963371,686.517525,1692.410278,1065.425491,928.226948,320.320582,1064.347172,1900.858498,1739.823723,776.321077,1106.938457,173.393643,545.523739,-399.822903
p10,682.648993,-256.745076,753.515768,296.069002,219.592452,155.240166,254.666519,-111.00117,672.259426,865.959549,449.117422,770.291662,-835.183048,-668.696356,-786.645508,-760.71043,-933.652878,-1068.827248,-1059.27248,-1012.721729,-852.857304,-444.373512,-651.578426,-496.74139,-716.383886,763.25717,-384.861779,-197.04479,-581.952429,489.382362,-600.832462,-94.028133,-923.481369,64.161825,-430.213213,-1043.450451,-67.06112,461.162519,-179.050827,-237.563586,-127.875817,1441.378117,-577.51236,1308.372688,1223.134995,1362.286377,862.013435,1027.72541,11.148014,1185.164928,-26.930243,-455.639315,-51.986015,727.447796,-144.552994,-652.488613,603.172779,1034.534168,-3.341001,300.857258,1695.949364,1051.106071,203.523064,384.629178,36.609784,-653.088474,-464.562654,-9.534911,745.980978,1518.296814,1158.18491,360.207152,1890.857506,2353.154182,873.191643,-197.558022,1378.267097,1939.938164,747.307491,356.876659,1852.918816,1910.921669,499.624968,621.001291,219.147468,90.881854,648.820734,308.894229,1608.063126,2270.877457,824.127388,1195.37096,2332.27005,2772.229767,1485.5896,1131.67038,1930.53875,3519.976044,1331.693935,858.82082,2204.405022,3381.053543,1300.459194,1092.338943,1776.362228,2872.127914,1706.10981,1228.617573,753.517008,330.010343,173.666573,658.791685,2010.480499,3060.971069,1630.313873,1544.797897,2004.051208,3057.883072,1625.297928,1551.20039,1692.058182,3518.697357,1717.349243,1200.850964,477.501535,-22.485158,360.135579,954.333401,93.835729,-780.074072,-803.702831,-101.209319,-805.989075,-46.593925,-780.679655,441.44516,-192.440593,216.341877,0.776298,-37.284604,-571.182919,11.990448,-619.051123,-285.66854,-1452.314568,246.604919,-497.60437,-80.62489,-1035.103703,-509.626007,-1009.559822,-594.582319,-977.093506,781.814003,-590.232706,-153.054285,2220.018959,3426.817703,57.574016,1582.045174,999.818134,1039.601421,758.689737,838.088322,-115.046883,-575.248575,-213.233209,-3.761934,-318.742037,235.551023,-466.594791,-169.541764,482.676363,1717.559814,391.000581,2451.588821,570.917845,1660.273552,-367.020535,45.174754,141.966844,1192.199898,29.608759,1130.031872,129.859674,1257.269764,883.818054,-827.7318,892.271137,855.277824,-72.326851,421.93861,668.61124,1362.782955,196.058929,790.39855,1677.887917,1362.827396,1529.561996,993.633556,959.438229,2289.847565,965.364456,28.220803,1643.610954,2524.510956,873.184872,365.544581,1204.142952,2589.290047,-88.909,1236.761284,733.564806,1687.617683,609.734344,1504.841232,1567.614937,2770.265388,1390.497017,1029.807854,1914.953995,3533.716583,1586.138058,843.535423,2081.477928,3974.434662,651.123333,1649.652481,1996.713638,3960.347748,1709.824753,1147.304916,1607.592583,3106.615639,1981.998634,1683.044434,2321.960831,4218.297577,1091.056824,1335.742855,2493.335152,4369.139099,1833.023453,1500.75388,1696.413803,3514.039612,1703.691292,1222.356033,1710.503197,2928.132248,1650.44651,1209.049129
p13,970.854378,-658.554125,701.346159,-2344.300652,38.287035,-1779.008675,881.525803,-4164.559174,-168.500268,132.789338,-634.023142,150.246942,-158.969438,126.320553,-610.324144,106.47732,-268.961763,894.956398,-27.410862,354.322481,276.191044,388.562679,738.861752,-841.921997,-50.13271,-2009.12075,304.83849,-2215.857887,209.847426,637.820053,-492.101955,902.148819,529.797173,1192.543697,556.953096,948.589706,1176.362038,1198.065662,383.850026,791.086102,518.375301,-116.201687,-398.434401,-553.501463,-25.565898,655.47924,-739.054108,2002.706718,594.710732,887.054443,-55.790132,1622.158813,1064.196968,1331.546974,983.635616,1627.778244,1313.249874,690.571022,394.363236,515.501499,1121.926975,-435.284424,-1444.952869,-343.019986,1035.139656,1934.937668,-789.772129,3829.635239,292.244411,259.728599,-455.317736,1327.391529,948.763847,1097.25008,120.517433,1682.693672,1231.795025,804.842663,401.836586,584.630585,1774.135017,477.93293,-18.696083,240.423322,-200.496197,-3089.619255,10.20057,-3691.147614,915.429497,17.503391,-1922.601128,541.896105,1195.687962,1252.177143,-178.695869,720.200729,1930.072594,1209.658146,430.478573,845.904255,1735.968018,728.66168,97.415495,-12.076669,1623.988533,-234.567833,-554.68545,-375.529289,-544.146729,1832.559204,-316.395307,2680.151749,924.524307,544.864798,-1753.466797,-309.263086,1187.665176,271.789241,-1687.0121,-1007.890701,1064.486217,-115.437865,-904.93784,-1448.360062,-1236.212254,784.272766,-889.782906,-608.255768,-176.478481,850.341797,188.107526,-326.774931,2.326006,-1175.211048,821.170616,-1237.945747,-451.842165,-3414.610672,295.326471,-4334.415436,-140.899134,132.727695,-639.486313,104.639673,-37.637895,315.441346,755.110455,1031.158638,593.617868,806.280899,566.36343,279.520679,-194.072294,-1025.93174,-613.181925,-1900.863647,529.808998,724.921942,-532.101488,1745.182419,152.573204,646.468973,-336.974716,801.83115,378.874564,759.281921,442.23175,1193.178082,1430.450821,1064.532185,623.11368,165.360808,166.687751,-370.390558,-820.062637,-1099.417305,18.420856,-348.143268,-1006.193733,-1489.369106,622.744083,920.052624,-347.293019,1612.329483,1532.534122,1377.094555,790.286255,1272.487736,1179.258251,668.702173,483.07147,578.535128,698.431826,157.751644,-216.945767,-243.952632,391.557121,-130.80374,-927.878571,735.891485,1761.038017,1464.895344,1002.399921,2319.208908,1953.911018,1237.082577,464.178801,873.730659,1948.569298,680.950546,480.691719,803.649807,1926.642799,189.537942,-972.862053,89.387584,515.02552,508.385229,-752.096653,520.209932,2785.351181,1820.673752,191.859889,1446.856499,2066.265488,864.735413,292.034745,413.186312,1637.816811,-253.487659,-564.261818,-387.769866,714.352751,407.179356,-2205.264854,-18.898891,918.894958,545.028782,-1742.031288,-308.977175,1923.363686,1208.197021,447.182226,841.975975,1953.876495,544.453859,126.146913,243.670225,2198.84243,683.983088,-1263.94062,-551.18413
p14,-1936.087036,-137.254012,-651.249695,1687.565231,-1177.964497,631.215143,859.348202,1204.420471,-1080.810642,-777.673674,-1139.894962,-432.027102,-1015.800095,42.096731,315.417862,-432.047749,-2088.559723,-13.585465,-276.784348,278.677249,123.744929,80.020511,-282.485104,-770.092869,-265.073562,-554.35214,797.732639,96.38468,8.611363,-838.211441,-248.144722,-224.037075,-1113.847828,-347.01755,-714.870644,-401.713896,8.13959,447.455978,-396.259356,-477.954388,-667.409658,-172.255933,-290.99443,-703.30472,249.242711,-1658.473778,-292.993212,-179.005349,-907.603455,135.163677,-368.786073,-200.62387,-266.817689,316.567016,262.999725,25.782329,-205.205297,359.806514,-166.82663,-455.333996,525.872612,-141.807246,33.067983,-188.217878,898.82431,-2102.031708,-1195.824337,-147.119212,354.081559,-122.024727,-580.718184,763.798761,353.569412,870.582104,1025.245571,701.582193,39.027712,639.511871,109.7157,-273.625231,559.948826,844.265079,982.760525,81.784511,1212.309456,278.751111,341.522217,436.883974,348.616576,-215.07051,692.927456,350.716281,624.088144,2385.42347,1918.816757,1501.65863,956.904316,1769.554329,-482.921362,-57.066339,1177.754116,1254.163837,1713.597679,157.214963,1740.401268,386.467886,1519.82832,-483.853149,-96.363682,-312.635803,171.906555,-137.396467,1280.121994,703.792667,764.802361,-925.273228,1389.386845,1031.974506,2111.588669,-858.183289,1461.268234,481.426048,1501.632023,-644.843912,-833.561325,-1144.044781,53.592557,629.893112,-1480.464554,758.052349,179.448295,-86.538625,-560.461426,706.440926,316.339612,135.144651,-906.058979,22.429483,1182.047081,-1461.500072,-1018.170071,64.214653,341.408587,-429.035854,-1521.205521,-712.82897,886.138821,1134.636974,-808.848,-223.776126,-467.232609,-124.871147,-889.922237,173.506629,959.49955,-623.534346,1526.746941,-477.390718,884.50222,506.845617,-548.191452,-953.829098,-353.973627,-209.13527,-1215.83643,447.445965,-265.249467,-525.256586,-678.421116,-312.696981,-320.533419,-889.95657,201.670551,-385.760069,33.474067,-283.19366,4409.58786,500.429058,1803.251457,882.091522,-295.724869,355.567122,105.578637,140.376341,-602.460384,414.071608,-281.917286,-44.319227,-544.222784,287.487817,275.463867,-455.767822,7.971866,668.495369,869.362259,229.624867,77.005589,-74.434292,-861.119366,19.433138,1057.443047,1711.010551,-88.92262,1160.213375,356.439018,1835.845375,-71.772665,373.339224,268.74938,853.2444,496.350193,-461.67593,412.788725,769.265318,159.233773,467.093945,539.543819,-254.421973,-170.197582,1247.761726,-713.691902,1082.936478,-114.209795,8.469245,591.677046,1394.730663,-1113.802242,-355.461836,1164.005756,1247.791195,1720.658112,145.27148,1873.363686,918.205452,136.681247,-554.25663,1479.077148,2465.706062,2435.126495,868.253422,1964.263916,2114.441109,1826.911736,351.011181,1749.500847,2084.461403,1735.222816,130.106866,1923.321915,553.906679,1960.739899,-290.881562
p15,983.340931,1094.719219,1144.565487,320.381188,-88.450187,-453.260756,1949.439049,-25.56296,367.585325,45.977828,829.528713,-1182.474804,1007.461262,72.338551,917.204094,-135.456657,-298.080182,736.73234,139.840114,764.793825,311.859918,365.633631,81.610352,-273.684573,-241.051078,-190.315008,1226.255226,87.423527,877.525234,190.566218,1056.398201,-108.303285,839.796162,981.59914,516.401052,-63.672256,-976.420307,1165.419197,945.368004,-2312.430573,-263.612032,-341.115808,-594.919777,-589.339542,-108.558464,1510.060501,1836.732292,1074.98827,1828.140259,1021.832085,1300.555611,625.851059,2494.690895,1055.051994,1326.171017,204.600644,86.095983,1102.763271,322.339463,-1352.588081,-721.848822,-425.536203,-130.639613,346.741152,80.08374,-919.72065,-914.090729,862.26778,2113.774109,787.593555,1627.016068,614.954519,1831.637383,1399.819279,2315.240097,667.408991,2145.777512,651.072788,1470.475769,-68.904173,-171.893358,-263.193321,-68.021041,-1622.247696,-79.923391,-258.152938,-246.034765,-310.398269,1716.151047,1065.995502,1228.019047,1299.241638,2218.798828,1005.476093,1712.211418,630.006647,2998.993111,2051.881599,1597.058296,464.531422,1791.938782,656.825018,178.956842,-937.253857,1674.949265,385.057425,433.538485,61.316341,694.933462,-52.394319,14.113283,363.705039,536.038637,-1094.766235,-243.274951,597.06316,1692.802238,-10.836513,259.264064,1221.467495,2523.788261,728.270912,392.132831,-341.537142,-155.770993,-522.567081,1311.010265,-4.622477,88.874626,770.801353,1472.447395,-274.321675,888.432026,1403.69873,908.033276,-360.925674,-79.078132,844.383335,1335.695934,-236.459947,685.136318,478.074074,1028.71685,-34.655678,739.070702,668.993759,524.6387,297.355199,563.78417,552.05946,548.501921,-17.7689,-1867.443275,1787.174034,1097.695541,-165.627956,29998.54736,11507.59964,32564.51111,30249.38355,-570.223904,81.895745,77.295822,-598.934841,642.482281,1219.316483,796.102667,-37.292296,539.20269,997.862244,690.999985,-158.375394,164.565074,-168.914962,426.163387,-403.342438,-1302.641678,-1352.169991,-774.147892,-332.65543,1161.970425,-244.157887,1161.434555,45.803159,2218.769264,1581.861687,1865.332031,751.272631,2015.712547,1299.681473,-403.029823,-2730.106544,398.540545,-574.412727,-2.225511,-271.607852,968.850803,310.417747,1382.452583,-224.758434,2355.377197,1193.93177,2023.040962,513.410044,2067.588425,1366.865444,1148.32468,296.510959,503.526545,235.552526,565.021896,161.101675,876.709652,-257.078552,237.953544,-645.527315,2394.524384,1256.922913,1260.637283,1403.389263,2644.105148,1431.678963,1045.933723,53.35744,823.663521,705.924034,-727.155209,-1983.034325,1775.422478,656.557417,144.534695,-957.540607,1904.470062,365.983248,544.926739,763.209677,2277.441406,1570.545769,909.007454,393.915486,2081.36158,1161.884022,1113.958836,386.304855,2116.38813,718.399286,493.924236,353.035617,1821.388626,878.535175,154.936087,-1041.538429
p17,235.325384,315.823388,-2266.777229,78.289664,-558.023787,-94.855261,-139.976859,1161.327457,-1065.727043,416.722536,664.717674,1349.617863,-1133.199406,463.662434,794.049215,825.272655,-1537.374687,-554.465914,-281.078672,-288.51738,-825.987053,-650.596189,1853.782082,1007.034016,-127.794838,-178.092146,1505.454445,1498.28558,-1363.039684,-460.270977,1625.139046,990.510368,-1436.740112,-2276.042938,98.247409,2366.042137,-1310.529995,472.295237,1306.073189,623.840332,246.325088,37.466452,2843.052673,1937.389374,-617.369175,-164.306021,1302.538776,1365.117359,-523.636055,880.319691,-848.610497,281.125593,359.082055,-57.73834,-701.918554,959.187794,587.508774,-1060.118484,245.516992,2513.090324,-407.917261,461.045837,1565.364361,1063.980293,-423.763466,1419.71283,-1199.813461,92.440742,-1079.670143,-594.36717,223.399782,1059.831619,938.721275,38.911867,646.843147,618.247986,313.423085,674.562597,491.837311,991.330624,-481.040096,1023.68145,1245.237732,-479.049015,63.578618,23.253611,-912.583828,289.550519,-1057.48806,205.852652,1194.578934,789.302158,555.722523,1497.362041,3146.689415,340.713286,369.552875,1193.798447,2450.131607,-21.590489,465.139198,682.562065,1648.49987,1417.156124,727.519274,980.933189,1366.572952,1352.481651,618.193388,464.519358,1262.926769,-672.6583,-321.852469,-361.670017,890.899372,-14.113562,-583.002853,2875.024033,1443.968105,1071.030617,1216.056156,739.299679,2482.810402,312.347579,-624.242926,-91.831899,488.222361,33.638072,-125.939822,397.324204,3240.048218,200.282049,137.14447,-1137.193203,437.1984,1764.013672,-294.50841,627.829266,1165.225315,1010.321903,-1140.752697,430.132389,815.13567,824.088573,-1214.514351,-462.391949,172.458947,719.650745,-1020.040703,-644.502354,-170.468354,252.93932,-257.42147,-116.991389,1660.043335,1681.323051,-955.592918,285.594392,1647.390556,2344.144058,-3755.031204,-630.443668,2460.368919,978.92561,-174.404395,970.192146,-590.566587,-699.699497,-1162.987137,-613.1598,1662.393379,74.9457,-1423.572731,23.302837,2193.522263,555.024385,-1282.076263,163.74743,1877.929115,-159.428263,-993.552399,844.669819,700.059509,1266.03241,-421.954536,-703.161907,-101.729584,1246.36755,33.199757,510.927153,552.507305,1600.176811,-33.28574,2014.345741,567.23814,-457.106686,-150.7231,843.829346,396.03436,671.927309,632.415009,941.429043,-1219.163513,1485.425377,377.101016,-274.216723,650.807619,1057.282162,381.437159,1031.66256,-236.568069,-208.314991,-6.507161,1534.447765,839.690685,-1823.764992,-447.965479,1385.074806,1207.483387,1620.550346,652.300406,907.362938,1613.860512,68.83589,-206.88765,540.389442,2461.052513,-1124.511814,103.613007,781.744528,1296.424198,1555.485535,-89.734405,1205.308723,1051.670551,1665.708351,258.685064,2207.050323,2610.321236,-599.797487,1139.732647,1205.944824,1712.301064,2108.160019,2361.450386,1690.69252,2336.396217,2336.626244,997.464561,1175.101566,2747.248077,1228.211117
p18,-118.054056,-1320.113659,-735.778904,-1883.976555,-1047.117805,-1212.803459,-563.816309,-1334.863472,133.969784,-600.72484,-170.922005,-372.681928,-547.018003,-603.870153,-141.475427,-331.382227,-742.909718,-88.711727,261.867785,92.478836,-609.024143,-425.16737,-640.815115,-567.346525,-730.315828,-531.272984,-155.92618,-239.377689,-268.43853,-399.204493,-584.061766,-492.641735,-1013.131905,-939.779758,823.82555,-294.348836,-577.98419,-17.747919,1602.298927,-0.554354,-125.34138,316.960692,728.96719,552.357674,984.631157,-318.67981,-543.763638,-67.17096,221.887255,-565.824461,-156.341136,-324.916983,-950.757313,-503.801394,233.67579,370.175433,146.265745,409.401894,256.142545,9.741802,-251.559758,-972.692871,-277.609134,1474.330902,1095.791435,-97.327811,91.209042,238.017821,143.300152,-8.466518,321.43271,365.026593,201.20945,-304.459071,286.387849,-689.434481,199.833429,-249.852133,967.251778,979.455376,-421.103334,887.081242,-730.703163,-644.713116,518.31522,-1122.510242,-289.647794,-93.294644,664.305544,-1097.46418,-1249.166489,544.948578,737.782288,-427.710485,-1303.393745,-425.047159,570.902586,-939.066601,24.255773,476.971674,273.655152,-431.996536,873.058414,569.968748,168.561184,257.916737,-1420.267296,-128.733194,502.001953,941.116047,269.990993,498.403645,562.845755,-1057.410049,-1468.329716,-866.100407,-316.966724,-1455.852127,-637.529182,-938.796997,978.835964,-1727.190018,-783.278608,309.076571,933.411121,-1939.361763,-866.327,-1619.090652,-1089.403343,-375.88799,-1211.225891,-792.093801,-1334.746552,619.418669,-30.581248,-1337.004089,-1280.582142,287.21056,-1269.114876,-1343.677425,-669.579744,-552.281427,-6.701193,-417.818308,-1408.086014,-814.412498,861.502266,-264.148879,-1194.841862,-213.383865,161.204922,-401.444626,-736.996269,-537.732792,-124.210131,-233.370328,1254.852295,-508.941936,-961.946297,1246.072388,127.070153,-517.479229,-1284.410477,26.963028,-403.346682,-909.062672,311.312199,-638.45315,-501.460266,-1170.249844,2182.536888,526.599979,905.526638,-493.388557,-582.44133,309.278822,843.167019,243.794465,-102.150393,-1157.258415,413.171911,-452.58522,-1405.696964,-341.983724,-387.651944,-697.296429,836.919594,21.953687,-418.028212,-156.227946,592.765999,-3.7354,811.882877,511.071348,-1243.281078,672.595263,509.140396,-563.321638,-1258.690739,-122.281563,149.439847,-243.098664,852.020168,-348.054171,-636.200857,-708.137798,339.266539,901.120758,-211.279178,2.063877,594.610262,199.591804,648.282957,-622.760201,-1425.048828,502.683353,738.548756,-443.227482,-1297.657681,-450.663996,759.99465,-434.95512,-1345.197201,-439.912176,272.428083,-449.600983,913.111115,527.951479,128.796661,255.572391,-1398.498726,-123.753154,1179.729843,-1264.589119,-1435.329533,-901.263142,217.259502,-668.858337,-1219.594288,-294.070029,-4.745162,-716.157198,-649.135971,-212.748837,155.901623,-380.298662,-1115.586853,-284.84323,-1256.984997,-1749.799156,-1812.767792,-343.130732
p20,1555.244732,1493.579292,651.632261,1187.884903,1236.680984,207.217431,1951.01223,807.225609,-451.515961,-1290.924263,-903.134441,101.030517,682.860231,1754.121971,632.679224,-974.296856,-2038.817787,131.015992,224.707198,-187.113607,-797.710371,499.207354,-1302.263641,175.703657,-391.457438,-1147.420788,-1062.227631,-696.196938,-508.630276,-285.216999,140.050578,-482.267475,70.978314,907.738781,189.53886,-254.537845,-140.995204,346.903563,-548.33436,-148.874354,-997.681332,-372.5389,-111.383271,-1171.028519,462.347507,141.789079,-389.092946,-1132.603931,540.913725,699.419832,596.480656,74.806333,-165.635622,922.59407,310.857987,166.0429,-628.736353,-50.399214,-870.099068,-197.272134,154.197013,721.384335,-1304.590321,415.357494,-1225.399303,-644.034243,-612.023592,-196.797037,845.43581,2520.50209,2115.766335,974.541092,1108.845329,1564.217758,1327.04668,297.97473,1681.220818,1980.653,678.041315,-661.824369,476.151037,2428.81546,97.475171,-1014.093113,42.738417,-721.498823,-435.601616,-175.657523,1590.692139,1608.487892,2517.905235,-353.765535,2947.243881,1825.876236,2408.261871,95.271164,1765.351677,2668.92662,2133.557129,501.397848,1562.883663,1874.328613,1724.730492,124.941957,1593.27755,1868.842697,1724.667931,115.759349,235.936999,-123.726058,176.111388,-2.11607,1980.678177,2067.667198,2434.971619,1211.93676,2117.416,1988.871002,3060.779953,1423.441887,2227.622223,2095.524216,2014.754295,611.555481,-854.062748,-929.049587,-970.003605,-526.932716,-858.650875,-20.819944,-1068.639755,-6.588784,81.376159,-864.752102,123.905861,-366.606426,-2495.86525,-3983.696747,-1966.434479,-1354.44088,-696.206141,-1438.611794,-1379.664898,-929.994106,-710.140371,358.623743,57.007354,536.838198,-694.615173,258.350635,-189.129364,-1017.256355,219.323826,90.057951,-495.70899,-801.333332,218.955827,-103.73069,29.329967,17.124142,62.636989,-784.638786,-129.746211,-488.105631,-293.314052,400.205326,10.857441,204.197359,408.512688,803.530884,-154.133463,-90.524596,-382.14016,-1135.196877,-1102.576637,-700.525665,-571.905088,-1177.142525,-126.63399,512.18338,1094.49749,-829.384136,15.481155,282.417226,989.709091,893.696499,1403.303146,132.38641,429.520178,1186.711884,397.315454,-1324.161911,113.587642,670.956087,-1054.147053,-1723.436546,-168.635285,11965.9996,-10038.25073,3246.34552,616.325045,1137.116146,1590.36665,331.09436,1195.19043,1604.788017,759.009504,-568.72077,687.386894,1213.839054,164.260149,254.093218,2259.389687,1649.781418,384.693432,38.327152,2240.804863,898.271751,1561.803818,819.42234,2147.607422,2076.420212,2779.202843,116.535807,862.521076,2034.932518,1698.882675,515.626431,787.814093,1759.998894,363.810802,-176.888549,2762.101555,1989.377213,3482.579422,1068.736553,1288.3955,3271.070862,2641.949081,1532.482624,16776.21765,10856.26221,10910.88715,2253.560257,1829.388237,1569.294643,2449.75071,986.643887,2226.107407,2091.17794,2019.360161,609.400034
p23,671.90752,1080.026913,8452.94342,404.934025,1766.172791,2922.392273,6748.044586,3400.636673,-237.662435,-1069.675159,823.711872,-693.865728,-733.703613,-458.158779,98.948258,-849.286079,1826.454544,1291.887283,731.611919,576.185846,-526.080322,-408.739901,617.886448,-1214.104843,-194.851315,-203.309679,-417.787457,-298.792529,-849.001598,-1972.324371,-243.656492,-1198.633862,143.248856,95.405316,148.788023,-303.286886,497.082853,19.126083,-1089.731407,-1152.121925,-819.642067,1039.490318,-1972.979355,27.852023,-1707.639313,-874.572659,-597.323608,-467.383289,-354.825091,-1080.472469,271.739006,-161.575675,-2.258669,614.336157,278.270626,458.933258,247.629714,508.865738,-213.608599,-91.69246,-140.396881,272.546005,-277.980733,-205.871463,-973.114109,-845.7201,-1148.784065,-864.77356,-268.515182,67.045385,299.664474,221.970534,440.288401,468.601751,353.622985,-224.132204,238.71069,246.570897,735.837984,-10.314499,467.511892,981.089115,107.590866,111.343288,-138.035822,243.697071,211.343026,6.407578,-1166.479206,-152.545035,769.043875,227.960372,-77.752495,624.673557,864.956093,692.978859,-49.492249,764.681053,504.080868,-246.214151,415.259504,693.703699,158.569682,552.330875,419.579983,658.693171,150.028276,542.034101,-32.897615,-399.161911,-871.999073,94.707203,387.332058,352.469015,-181.442881,749.739313,63.222927,-108.535206,110.027921,311.156392,356.621265,-7.920124,-1107.691956,191.174757,1078.354359,533.382082,1238.195992,35.790586,731.107855,1029.437065,1032.86581,751.131439,631.325722,1136.396122,137.27299,76.873779,-626.892138,1148.186874,10171.59805,-1500.192356,-419.917393,-622.318411,-67.891997,-1128.737736,506.289864,977.79808,1072.492027,-355.347681,664.884377,742.895174,198.466682,-626.021099,277.131128,248.352933,-314.082766,-340.533805,-771.254921,-878.625584,-556.240082,-187.15148,-463.11183,-576.621199,-859.247684,-579.511356,-194.102645,-116.582763,-371.083307,-666.013956,1064.93845,-153.872728,12.259661,-1669.4561,-1023.13652,-245.594049,-513.284779,-739.764309,-1318.038654,-1026.462269,-807.662868,-1628.378868,-1007.790947,-977.662659,-521.926785,-364.330101,-224.414515,-46.357241,-522.091579,-579.536438,162.150586,737.058926,108.663952,178.809631,-281.909561,363.9503,-17.024247,-354.238844,-669.946146,-274.848008,-279.076481,577.296925,-313.532162,256.290579,465.362167,-181.880546,1607.816124,467.065239,325.688553,118.7343,-31.581059,145.360339,-300.023341,-532.629871,-117.871797,269.590163,209.049702,212.811852,180.176604,566.406584,718.168974,767.295885,15.947382,825.220394,680.00741,189.771605,-580.297232,576.877785,-381.632566,369.51654,415.106726,653.548431,180.355752,545.385933,-330.453968,411.115885,355.044842,784.744024,997.334957,1153.253651,884.124374,581.712532,207.743502,642.906618,118.536699,287.460041,160.537386,1114.750671,1.53799,236.784697,946.358395,1078.315258,187.617147,734.108067
p24,3881.690979,590.725899,-64.952284,2819.246292,4327.993393,-915.997028,1326.079941,1192.171955,-625.234985,155.037916,870.356655,537.763643,-1228.504086,107.118595,-1015.654373,3052.257919,-54.485387,642.908144,-2078.772926,707.408619,54.433298,-270.268822,-655.019951,-228.146815,134.902585,828.086567,-149.740279,-467.202377,-307.700372,-216.466236,-125.949192,-503.913164,134.587634,-39.557829,-810.701752,-34.00062,165.134943,729.817343,-2308.15773,836.261845,523.302889,444.751024,856.42004,-525.06876,-502.3664,-573.338652,152.999115,-362.036943,724.732637,6.150362,-622.309875,698.42205,832.491112,224.861741,-297.759414,-261.352634,427.337646,1262.201595,-1430.282116,870.311451,1294.556046,667.303944,154.577792,-1046.383381,-4535.248947,-4038.554001,2290.902519,-5045.059967,664.19363,1065.19556,318.943238,1144.161224,2058.711624,412.825537,652.168941,999.064732,1431.609058,2414.446449,-663.678169,1303.270817,-38.212669,1313.306808,1039.99176,608.824921,1849.657631,390.604305,706.116152,-566.596127,842.048168,1558.006096,1674.928474,1388.817596,323.042393,2138.468742,1513.578796,2457.962799,3500.555038,2676.193047,874.887276,2169.713783,447.62044,1438.264751,747.732162,1242.821503,2431.727982,2082.216454,575.182533,725.930691,-1428.480434,-105.534446,514.163876,909.678173,-420.471525,997.095585,920.381546,498.260403,-167.642069,1207.44381,-192.233622,609.124947,-384.08165,1544.16132,270.641232,1256.631947,1585.105038,-1735.753441,1624.950981,2271.350098,1761.863327,1731.507301,-220.141935,1907.395363,637.264347,1594.436264,328.219414,599.811649,1670.845222,572.635078,464.813232,102.352953,465.824842,507.442236,-54.200512,286.107898,410.308504,633.655262,-1970.376015,560.083628,243.145847,-92.086905,-287.5844,1929.133797,99.217802,819.02113,-169.369209,-500.587368,-1311.450386,-517.013121,255.356884,-1078.115177,-1132.753754,-553.658199,148.408031,-913.703251,-1155.285454,-106.525958,-2120.473862,204.449439,396.096039,244.595146,231.359506,-304.276824,1306.840801,666.341114,176.765144,-1043.006897,-1028.213215,517.340803,-110.072315,-1773.170662,-14.238206,1077.543449,-976.062489,751.300955,438.03792,452.442932,-383.177733,242.56525,625.556087,1873.257637,160.549235,870.996857,945.696354,563.586187,802.802563,-430.125284,232.325339,758.72488,150.90574,63.451123,1121.736526,1247.898674,-187.761986,1763.924026,1460.023785,802.636051,1290.18383,607.339811,483.680344,1694.509506,737.361383,2329.285049,727.513695,226.97196,327.113891,-700.026846,-1136.388969,2147.027016,2012.796593,2419.291496,2124.012184,941.366577,1027.841854,2254.319763,1428.747654,1776.289177,-130.562639,2491.210556,197.294676,1529.959106,678.613377,1141.530514,102.749562,1491.254616,815.401363,11.187056,429.416513,2397.221184,1600.672913,2704.551125,-207.116199,1212.627411,-195.84446,612.756634,-305.716491,1581.666183,291.42282,1265.948868,2409.108353,1823.114967,2687.21714,802.556133
p25,955.175591,-4305.67131,-404.025555,-2810.554314,1055.94492,-3189.194107,-1106.638527,-2735.264587,85.317177,-2454.935265,-438.657713,-1809.077072,1682.901764,-647.477341,209.86166,702.439976,1197.596264,-469.010496,390.167689,1528.52869,1454.354668,736.640072,219.009662,30.055541,1412.187958,-267.518234,59.886634,-220.444536,551.994085,-589.159489,-411.328602,-247.763371,1199.425507,795.781803,658.261013,148.122108,2601.305199,1062.485409,1268.411827,1534.360313,1408.417606,400.163269,319.229245,25.131804,518.273258,-582.731819,-18.313392,-2.168857,1742.701721,787.560225,968.665123,573.910332,3057.979584,2390.72876,1413.967133,2373.209572,1739.823723,1219.315147,476.056004,884.813309,1530.00536,811.284733,807.664013,-659.45158,1101.727295,3072.372437,-513.400888,2960.868073,1562.926388,84.885824,495.761538,799.866676,2652.365685,1414.710522,1674.926376,1359.736919,1655.307388,1516.641045,1404.77705,1125.497532,2386.037064,1660.430527,2118.369102,1432.264233,1764.848328,-16.249697,-585.865021,422.171402,1603.154945,320.519209,1175.285244,-42.103291,1881.037712,936.292076,615.662956,857.00016,1999.80011,3456.663895,118.578362,2691.883278,2372.729683,1534.837723,749.775124,946.762276,1216.909504,253.043151,294.285488,-39.769053,-3486.297226,-745.765686,-446.816397,-1346.059513,1710.669899,1252.616882,364.383268,59.170735,1144.516659,311.018181,388.443327,-90.715575,1705.76973,-639.777231,564.73031,-653.298426,-197.933793,-4108.00705,-528.494453,-3343.507385,1135.325146,-2056.695747,-303.425384,-980.2001,1441.02354,-288.767934,114.013696,-230.542302,881.78196,-1422.770691,-788.661957,-961.613178,-25.574097,-1610.140991,-410.232639,-728.921747,1199.381924,-1702.167511,-59.76156,626.176691,1712.329102,1036.381054,1432.328796,919.112015,1463.949203,-250.032401,56.278241,-237.192917,-23.244442,-1097.776508,-612.367344,-1731.308365,738.884258,-1437.49609,-450.766134,-1487.768841,1693.330956,-389.455199,115.685737,860.677719,2609.064865,1068.310642,1247.308922,1540.151215,1375.447464,353.233981,393.224168,1.128871,1670.762444,1424.371719,161.505151,1178.519344,503.839016,-550.115776,121.520233,60.879803,2474.565887,995.983887,1595.460129,1341.607285,1769.103241,1931.895828,2133.68988,1449.465466,1442.238235,588.53364,584.214354,218.370152,939.99939,-884.613895,-336.31587,-54.5874,1999.832344,1636.60717,807.197952,764.970684,2561.978531,1682.128716,481.980419,939.568043,1669.330025,1495.270729,1396.458435,1152.501774,1817.240143,-18.009759,1040.098476,1193.901348,1913.682175,845.963764,604.888725,802.871227,1907.198143,957.599354,613.496017,816.902924,1731.843376,980.333519,814.488602,594.786119,2338.765144,1550.055981,777.85306,906.3591,1339.173889,0.333301,428.346968,357.773757,1764.122009,340.347981,567.806482,604.652405,2551.117134,1641.104889,893.515968,1243.526363,1608.311272,485.501623,516.597319,302.589202,2920.736504,677.990961,676.13492,378.291988
p26,104.786253,1912.929916,-809.179211,-410.043335,-142.370939,1336.647415,-228.927016,-889.319801,-228.015661,186.59339,-1173.608398,-948.039722,-481.43549,987.70113,-755.410194,-1035.835171,-677.789354,1114.92815,-33.993781,-285.868835,-133.984828,1089.601517,-83.139646,-203.019118,-919.572353,907.730484,-820.4566,-520.564604,584.079218,478.678036,-658.396673,-555.043459,11.09183,1410.342598,239.183736,-781.337452,-56.169862,1528.466034,138.133192,-789.985991,288.43863,1332.25193,-880.369949,-870.044994,-679.744005,-917.593002,-1844.67907,-998.967457,1004.921818,1817.550659,-308.956504,-272.40746,806.472206,2470.699692,1027.277279,-763.756561,1466.181087,2262.143898,851.847935,-200.197983,-808.504868,-266.545439,-1926.686668,-955.350304,1493.43462,512.777901,-959.385967,792.833948,918.440914,804.538918,233.434176,233.753586,1849.338913,3532.601547,1622.973442,-829.971027,1782.915306,2518.583679,1804.059219,218.364382,428.985262,2010.98156,177.139783,1075.677967,-1135.589314,-832.446289,47.335762,380.821395,985.799789,2084.065437,420.855284,191.228938,981.436348,2092.989159,429.977798,196.949852,1795.705032,2960.833359,977.455139,-481.25248,4050.701904,3815.354538,1956.521797,1164.474106,1729.299164,2838.602257,-576.150846,682.978916,1016.135025,-607.817507,96.238852,374.410081,1027.851582,1540.911674,-766.782284,-473.2512,1287.068176,1856.192398,-88.240558,-949.738884,829.926777,1385.709476,-266.698122,-293.488693,827.953815,1366.985321,-249.056625,-862.635803,41.255751,1102.821159,-534.296608,-1047.64843,46.986669,1310.857296,-258.321738,-1121.799278,-178.142273,-500.451374,19.065353,-339.863539,-466.782665,987.853241,-756.829071,-1038.98077,172.29774,1757.064438,1000.465107,-44.257116,434.901142,1440.392017,1031.455708,-529.69656,-885.484028,930.426216,-777.885103,-540.32855,-278.970456,-44.646385,-1604.743767,-1142.158031,-141.275871,65.965217,-1067.320442,-552.209568,-110.725796,828.378296,-843.156815,-1163.525486,1176.184273,1181.545734,-505.906773,71.728885,-1262.334156,-549.982214,-665.470457,65.785694,-324.076986,-13.289502,-2754.782677,-1797.792625,-327.741838,-66.438699,-669.228745,-727.104521,747.536039,1350.735569,417.293549,-77.079451,640.713835,3098.500824,945.807743,249.617648,1040.776825,786.730814,-689.42194,392.864013,1733.74939,-1470.068073,-290.662932,105.096781,327.614927,1344.070625,393.112206,-163.468063,556.03776,2690.084457,1216.568851,-435.612679,2982.845688,2580.837822,-9.99509,-53.731263,-543.460703,621.972132,-903.712845,-1633.323288,974.30706,2086.38382,416.88838,205.872774,1920.761299,2326.243782,728.890133,103.054082,2747.741318,4415.869141,1614.897919,-272.423792,705.499029,587.313032,-892.556763,-162.892175,1385.49614,1774.603271,-27.414253,63.269037,700.17333,2447.006226,645.322609,-336.69467,1247.328472,3240.326691,1376.32103,-87.312108,831.337547,1359.733868,-274.875808,-304.257298,826.196671,2276.355743,199.290919,642.092323
